function [ a ] = getalpha( lambda )
A=[0.0006,0.9999,0.0006,0.0000;
0.0006,0.9999,0.0006,0.0000;
0.0007,0.9999,0.0007,0.0000;
0.0007,0.9999,0.0007,0.0000;
0.0007,0.9999,0.0007,0.0000;
0.0007,0.9999,0.0007,0.0000;
0.0007,0.9999,0.0007,0.0000;
0.0007,0.9999,0.0007,0.0000;
0.0008,0.9999,0.0008,0.0000;
0.0008,0.9998,0.0008,0.0000;
0.0008,0.9998,0.0008,0.0000;
0.0008,0.9998,0.0008,0.0000;
0.0008,0.9998,0.0008,0.0000;
0.0008,0.9998,0.0008,0.0000;
0.0009,0.9998,0.0009,0.0000;
0.0009,0.9998,0.0009,0.0000;
0.0009,0.9998,0.0009,0.0000;
0.0009,0.9998,0.0009,0.0000;
0.0010,0.9997,0.0010,0.0000;
0.0010,0.9997,0.0010,0.0000;
0.0010,0.9997,0.0010,0.0000;
0.0010,0.9997,0.0010,0.0000;
0.0011,0.9997,0.0011,0.0000;
0.0011,0.9997,0.0011,0.0000;
0.0011,0.9996,0.0011,0.0000;
0.0011,0.9996,0.0011,0.0000;
0.0012,0.9996,0.0012,0.0000;
0.0012,0.9996,0.0012,0.0000;
0.0012,0.9996,0.0012,0.0000;
0.0013,0.9995,0.0013,0.0000;
0.0013,0.9995,0.0013,0.0000;
0.0013,0.9995,0.0013,0.0000;
0.0013,0.9995,0.0013,0.0000;
0.0014,0.9994,0.0014,0.0001;
0.0014,0.9994,0.0014,0.0001;
0.0014,0.9994,0.0014,0.0001;
0.0015,0.9994,0.0015,0.0001;
0.0015,0.9993,0.0015,0.0001;
0.0016,0.9993,0.0016,0.0001;
0.0016,0.9993,0.0016,0.0001;
0.0016,0.9992,0.0016,0.0001;
0.0017,0.9992,0.0017,0.0001;
0.0017,0.9991,0.0017,0.0001;
0.0018,0.9991,0.0018,0.0001;
0.0018,0.9990,0.0018,0.0001;
0.0018,0.9990,0.0018,0.0001;
0.0019,0.9989,0.0019,0.0002;
0.0019,0.9989,0.0019,0.0002;
0.0020,0.9988,0.0020,0.0002;
0.0020,0.9988,0.0020,0.0002;
0.0021,0.9987,0.0021,0.0002;
0.0021,0.9987,0.0021,0.0002;
0.0022,0.9986,0.0022,0.0003;
0.0022,0.9985,0.0022,0.0003;
0.0023,0.9984,0.0023,0.0003;
0.0023,0.9836,0.0023,0.0003;
0.0024,0.9983,0.0024,0.0004;
0.0025,0.9982,0.0025,0.0004;
0.0025,0.9981,0.0025,0.0004;
0.0026,0.9980,0.0026,0.0005;
0.0026,0.9979,0.0026,0.0005;
0.0027,0.9978,0.0027,0.0006;
0.0028,0.9977,0.0028,0.0006;
0.0028,0.9976,0.0028,0.0007;
0.0029,0.9975,0.0029,0.0007;
0.0030,0.9973,0.0030,0.0008;
0.0031,0.9972,0.0031,0.0009;
0.0031,0.9971,0.0031,0.0009;
0.0032,0.9970,0.0032,0.0010;
0.0033,0.9968,0.0033,0.0011;
0.0034,0.9967,0.0034,0.0012;
0.0035,0.9965,0.0035,0.0013;
0.0035,0.9964,0.0035,0.0014;
0.0036,0.9962,0.0036,0.0015;
0.0037,0.9960,0.0037,0.0017;
0.0038,0.9959,0.0038,0.0018;
0.0039,0.9957,0.0039,0.0019;
0.0040,0.9955,0.0040,0.0021;
0.0041,0.9953,0.0041,0.0023;
0.0042,0.9951,0.0042,0.0025;
0.0043,0.9949,0.0043,0.0027;
0.0044,0.9947,0.0044,0.0029;
0.0045,0.9945,0.0045,0.0031;
0.0046,0.9943,0.0046,0.0034;
0.0047,0.9940,0.0047,0.0037;
0.0048,0.9938,0.0048,0.0039;
0.0050,0.9936,0.0050,0.0042;
0.0051,0.9934,0.0051,0.0046;
0.0052,0.9932,0.0052,0.0049;
0.0053,0.9930,0.0053,0.0053;
0.0055,0.9928,0.0055,0.0057;
0.0056,0.9925,0.0056,0.0062;
0.0057,0.9924,0.0057,0.0066;
0.0059,0.9922,0.0059,0.0071;
0.0060,0.9921,0.0060,0.0076;
0.0062,0.9919,0.0062,0.0082;
0.0063,0.9918,0.0063,0.0088;
0.0065,0.9917,0.0065,0.0095;
0.0066,0.9917,0.0066,0.0100;
0.0068,0.9916,0.0068,0.0107;
0.0070,0.9916,0.0070,0.0114;
0.0071,0.9917,0.0071,0.0112;
0.0073,0.9918,0.0073,0.0128;
0.0075,0.9923,0.0075,0.0145;
0.0077,0.9923,0.0077,0.0145;
0.0078,0.9929,0.0078,0.0152;
0.0081,0.9934,0.0081,0.0157;
0.0083,0.9938,0.0083,0.0162;
0.0084,0.9941,0.0084,0.0166;
0.0087,0.9946,0.0087,0.0172;
0.0089,0.9950,0.0089,0.0177;
0.0091,0.9955,0.0091,0.0183;
0.0093,0.9959,0.0093,0.0188;
0.0095,0.9964,0.0095,0.0194;
0.0098,0.9970,0.0098,0.0200;
0.0100,0.9977,0.0100,0.0206;
0.0103,0.9986,0.0103,0.0212;
0.0105,0.9996,0.0105,0.0219;
0.0108,1.0008,0.0108,0.0226;
0.0111,1.0024,0.0111,0.0233;
0.0113,1.0039,0.0113,0.0239;
0.0116,1.0070,0.0116,0.0247;
0.0119,1.0132,0.0119,0.0256;
0.0122,1.0241,0.0122,0.0262;
0.0122,1.0250,0.0122,0.0240;
0.0123,1.0300,0.0123,0.0050;
0.0124,1.0320,0.0124,0.0015;
0.0125,1.0340,0.0125,0.0010;
0.0126,1.0340,0.0126,0.0010;
0.0128,1.0340,0.0128,0.0011;
0.0130,1.0300,0.0130,0.0011;
0.0132,1.0220,0.0132,0.0012;
0.0136,1.0080,0.0136,0.0013;
0.0140,1.0000,0.0140,0.0014;
0.0150,0.9930,0.0150,0.0018;
0.0160,0.9910,0.0160,0.0022;
0.0170,0.9880,0.0170,0.0025;
0.0180,0.9850,0.0180,0.0030;
0.0190,0.9820,0.0190,0.0034;
0.0200,0.9780,0.0200,0.0039;
0.0210,0.9760,0.0210,0.0044;
0.0220,0.9720,0.0220,0.0050;
0.0230,0.9680,0.0230,0.0055;
0.0240,0.9640,0.0240,0.0061;
0.0250,0.9600,0.0250,0.0067;
0.0260,0.9560,0.0260,0.0073;
0.0270,0.9520,0.0270,0.0078;
0.0280,0.9470,0.0280,0.0084;
0.0290,0.9420,0.0290,0.0090;
0.0300,0.9370,0.0300,0.0095;
0.0310,0.9300,0.0310,0.0100;
0.0320,0.9250,0.0320,0.0104;
0.0330,0.9180,0.0330,0.0100;
0.0340,0.9130,0.0340,0.0113;
0.0350,0.9060,0.0350,0.0117;
0.0360,0.8990,0.0360,0.0121;
0.0370,0.8930,0.0370,0.0124;
0.0380,0.8850,0.0380,0.0128;
0.0390,0.8770,0.0390,0.0132;
0.0400,0.8690,0.0400,0.0135;
0.0410,0.8600,0.0410,0.0138;
0.0420,0.8530,0.0420,0.0142;
0.0430,0.8430,0.0430,0.0147;
0.0440,0.8340,0.0440,0.0152;
0.0450,0.8240,0.0450,0.0158;
0.0460,0.8140,0.0460,0.0168;
0.0470,0.8030,0.0470,0.0178;
0.0480,0.7920,0.0480,0.0192;
0.0490,0.7780,0.0490,0.0205;
0.0500,0.7660,0.0500,0.0223;
0.0510,0.7520,0.0510,0.0243;
0.0520,0.7370,0.0520,0.0264;
0.0530,0.7220,0.0530,0.0292;
0.0540,0.7060,0.0540,0.0325;
0.0550,0.6910,0.0550,0.0365;
0.0560,0.6750,0.0560,0.0405;
0.0570,0.6590,0.0570,0.0455;
0.0580,0.6440,0.0580,0.0510;
0.0590,0.6270,0.0590,0.0580;
0.0600,0.6100,0.0600,0.0650;
0.0610,0.5900,0.0610,0.0740;
0.0620,0.5670,0.0620,0.0835;
0.0630,0.5490,0.0630,0.0930;
0.0636,0.5420,0.0636,0.1400;
0.0640,0.5300,0.0640,0.1000;
0.0650,0.5130,0.0650,0.1130;
0.0653,0.5140,0.0653,0.1630;
0.0670,0.4850,0.0670,0.1890;
0.0689,0.4550,0.0689,0.2190;
0.0698,0.4400,0.0698,0.2370;
0.0708,0.4260,0.0708,0.2550;
0.0719,0.4110,0.0719,0.2750;
0.0729,0.3970,0.0729,0.2960;
0.0738,0.3860,0.0738,0.3140;
0.0742,0.3790,0.0742,0.3230;
0.0747,0.3740,0.0747,0.3330;
0.0751,0.3690,0.0751,0.3420;
0.0763,0.3570,0.0763,0.3670;
0.0775,0.3450,0.0775,0.3940;
0.0787,0.3330,0.0787,0.4210;
0.0800,0.3230,0.0800,0.4500;
0.0813,0.3130,0.0813,0.4790;
0.0827,0.3040,0.0827,0.5100;
0.0841,0.2960,0.0841,0.5410;
0.0855,0.2880,0.0855,0.5730;
0.0870,0.2810,0.0870,0.6070;
0.0886,0.2750,0.0886,0.6410;
0.0902,0.2690,0.0902,0.6770;
0.0918,0.2650,0.0918,0.7140;
0.0936,0.2610,0.0936,0.7520;
0.0954,0.2580,0.0954,0.7920;
0.0972,0.2560,0.0972,0.8330;
0.0992,0.2550,0.0992,0.8750;
0.1012,0.2560,0.1012,0.9180;
0.1033,0.2570,0.1033,0.9630;
0.1055,0.2590,0.1055,1.0100;
0.1078,0.2630,0.1078,1.0600;
0.1102,0.2670,0.1102,1.1100;
0.1127,0.2720,0.1127,1.1600;
0.1153,0.2780,0.1153,1.2100;
0.1181,0.2860,0.1181,1.2600;
0.1210,0.2950,0.1210,1.3200;
0.1240,0.3060,0.1240,1.3800;
0.1272,0.3180,0.1272,1.4500;
0.1305,0.3320,0.1305,1.5100;
0.1340,0.3480,0.1340,1.5800;
0.1378,0.3670,0.1378,1.6600;
0.1417,0.3890,0.1417,1.7300;
0.1459,0.4140,0.1459,1.8200;
0.1503,0.4440,0.1503,1.9000;
0.1550,0.4780,0.1550,2.0000;
0.1600,0.5170,0.1600,2.1000;
0.1653,0.5630,0.1653,2.2100;
0.1710,0.6180,0.1710,2.3200;
0.1771,0.6820,0.1771,2.4500;
0.1837,0.7560,0.1837,2.5800;
0.1907,0.8470,0.1907,2.7300;
0.1984,0.9680,0.1984,2.8900;
0.2066,1.0100,0.2066,2.9090;
0.2073,1.0360,0.2073,2.9280;
0.2080,1.0460,0.2080,2.9440;
0.2087,1.0660,0.2087,2.9370;
0.2094,1.0700,0.2094,2.9630;
0.2101,1.0830,0.2101,2.9820;
0.2109,1.0880,0.2109,2.9870;
0.2116,1.1020,0.2116,3.0050;
0.2123,1.1090,0.2123,3.0150;
0.2130,1.1190,0.2130,3.0250;
0.2138,1.1330,0.2138,3.0450;
0.2145,1.1390,0.2145,3.0610;
0.2153,1.1550,0.2153,3.0730;
0.2160,1.1640,0.2160,3.0860;
0.2168,1.1750,0.2168,3.1020;
0.2175,1.1800,0.2175,3.1120;
0.2183,1.1950,0.2183,3.1350;
0.2191,1.2110,0.2191,3.1500;
0.2198,1.2220,0.2198,3.1690;
0.2206,1.2350,0.2206,3.1900;
0.2214,1.2470,0.2214,3.2060;
0.2222,1.2650,0.2222,3.2280;
0.2230,1.2800,0.2230,3.2450;
0.2238,1.2990,0.2238,3.2670;
0.2246,1.3190,0.2246,3.2850;
0.2254,1.3400,0.2254,3.3020;
0.2263,1.3620,0.2263,3.3190;
0.2271,1.3890,0.2271,3.3340;
0.2279,1.4160,0.2279,3.3500;
0.2288,1.4450,0.2288,3.3590;
0.2296,1.4710,0.2296,3.3660;
0.2305,1.5020,0.2305,3.3680;
0.2313,1.5260,0.2313,3.3680;
0.2322,1.5480,0.2322,3.3640;
0.2331,1.5660,0.2331,3.3580;
0.2339,1.5790,0.2339,3.3530;
0.2348,1.5850,0.2348,3.3460;
0.2357,1.5900,0.2357,3.3440;
0.2366,1.5910,0.2366,3.3440;
0.2375,1.5920,0.2375,3.3470;
0.2384,1.5890,0.2384,3.3540;
0.2394,1.5860,0.2394,3.3630;
0.2403,1.5820,0.2403,3.3760;
0.2412,1.5790,0.2412,3.3890;
0.2422,1.5730,0.2422,3.4080;
0.2431,1.5710,0.2431,3.4290;
0.2441,1.5700,0.2441,3.4510;
0.2450,1.5690,0.2450,3.4770;
0.2460,1.5680,0.2460,3.5040;
0.2470,1.5690,0.2470,3.5330;
0.2480,1.5700,0.2480,3.5650;
0.2490,1.5750,0.2490,3.5980;
0.2500,1.5800,0.2500,3.6320;
0.2510,1.5840,0.2510,3.6700;
0.2520,1.5910,0.2520,3.7090;
0.2530,1.5970,0.2530,3.7490;
0.2541,1.6080,0.2541,3.7890;
0.2551,1.6180,0.2551,3.8350;
0.2562,1.6290,0.2562,3.8800;
0.2572,1.6430,0.2572,3.9280;
0.2583,1.6580,0.2583,3.9790;
0.2594,1.6730,0.2594,4.0310;
0.2605,1.6920,0.2605,4.0880;
0.2616,1.7130,0.2616,4.1490;
0.2627,1.7370,0.2627,4.2110;
0.2638,1.7640,0.2638,4.2780;
0.2649,1.7940,0.2649,4.3500;
0.2661,1.8310,0.2661,4.4260;
0.2672,1.8740,0.2672,4.5060;
0.2684,1.9270,0.2684,4.5900;
0.2695,1.9880,0.2695,4.6780;
0.2707,2.0590,0.2707,4.7640;
0.2719,2.1400,0.2719,4.8490;
0.2731,2.2340,0.2731,4.9330;
0.2743,2.3390,0.2743,5.0110;
0.2755,2.4510,0.2755,5.0820;
0.2768,2.5720,0.2768,5.1480;
0.2780,2.7000,0.2780,5.2060;
0.2792,2.8330,0.2792,5.2570;
0.2805,2.9740,0.2805,5.3040;
0.2818,3.1200,0.2818,5.3440;
0.2831,3.2770,0.2831,5.3810;
0.2844,3.4440,0.2844,5.4140;
0.2857,3.6340,0.2857,5.4350;
0.2870,3.8490,0.2870,5.4390;
0.2883,4.0860,0.2883,5.3950;
0.2897,4.3180,0.2897,5.3010;
0.2910,4.5250,0.2910,5.1580;
0.2924,4.6860,0.2924,4.9890;
0.2938,4.8050,0.2938,4.8120;
0.2952,4.8880,0.2952,4.6390;
0.2966,4.9410,0.2966,4.4800;
0.2980,4.9770,0.2980,4.3350;
0.2995,4.9990,0.2995,4.2040;
0.3009,5.0120,0.3009,4.0860;
0.3024,5.0200,0.3024,3.9790;
0.3039,5.0210,0.3039,3.8850;
0.3054,5.0200,0.3054,3.7980;
0.3069,5.0180,0.3069,3.7200;
0.3084,5.0150,0.3084,3.6500;
0.3100,5.0100,0.3100,3.5870;
0.3115,5.0090,0.3115,3.5290;
0.3131,5.0100,0.3131,3.4770;
0.3147,5.0090,0.3147,3.4290;
0.3163,5.0120,0.3163,3.3860;
0.3179,5.0160,0.3179,3.3460;
0.3195,5.0210,0.3195,3.3100;
0.3212,5.0290,0.3212,3.2750;
0.3229,5.0400,0.3229,3.2420;
0.3246,5.0520,0.3246,3.2110;
0.3263,5.0650,0.3263,3.1820;
0.3280,5.0790,0.3280,3.1540;
0.3297,5.0950,0.3297,3.1280;
0.3315,5.1150,0.3315,3.1030;
0.3333,5.1340,0.3333,3.0790;
0.3351,5.1560,0.3351,3.0580;
0.3369,5.1790,0.3369,3.0390;
0.3388,5.2040,0.3388,3.0210;
0.3406,5.2310,0.3406,3.0070;
0.3425,5.2610,0.3425,2.9950;
0.3444,5.2960,0.3444,2.9870;
0.3463,5.3360,0.3463,2.9830;
0.3483,5.3830,0.3483,2.9840;
0.3502,5.4420,0.3502,2.9890;
0.3522,5.5150,0.3522,2.9990;
0.3542,5.6100,0.3542,3.0140;
0.3563,5.7330,0.3563,3.0260;
0.3583,5.8940,0.3583,3.0230;
0.3604,6.0890,0.3604,2.9820;
0.3625,6.3080,0.3625,2.8810;
0.3647,6.5220,0.3647,2.7050;
0.3668,6.6950,0.3668,2.4560;
0.3690,6.7960,0.3690,2.1690;
0.3712,6.8290,0.3712,1.8700;
0.3734,6.7990,0.3734,1.5770;
0.3757,6.7090,0.3757,1.3210;
0.3780,6.5850,0.3780,1.1100;
0.3803,6.4520,0.3803,0.9450;
0.3827,6.3160,0.3827,0.8150;
0.3850,6.1850,0.3850,0.7140;
0.3875,6.0620,0.3875,0.6300;
0.3899,5.9480,0.3899,0.5610;
0.3924,5.8420,0.3924,0.5050;
0.3949,5.7440,0.3949,0.4560;
0.3974,5.6540,0.3974,0.4160;
0.4000,5.5700,0.4000,0.3870;
0.4025,5.4930,0.4025,0.3550;
0.4052,5.4200,0.4052,0.3290;
0.4078,5.3490,0.4078,0.3130;
0.4105,5.2840,0.4105,0.2910;
0.4133,5.2220,0.4133,0.2690;
0.4161,5.1640,0.4161,0.2550;
0.4189,5.1090,0.4189,0.2440;
0.4217,5.0580,0.4217,0.2280;
0.4246,5.0090,0.4246,0.2110;
0.4275,4.9610,0.4275,0.2030;
0.4305,4.9160,0.4305,0.1940;
0.4335,4.8720,0.4335,0.1850;
0.4366,4.8310,0.4366,0.1850;
0.4397,4.7910,0.4397,0.1700;
0.4428,4.7530,0.4428,0.1630;
0.4460,4.7180,0.4460,0.1490;
0.4492,4.6820,0.4492,0.1490;
0.4525,4.6480,0.4525,0.1330;
0.4558,4.6150,0.4558,0.1310;
0.4592,4.5830,0.4592,0.1300;
0.4626,4.5530,0.4626,0.1310;
0.4661,4.5220,0.4661,0.1340;
0.4696,4.4950,0.4696,0.1200;
0.4732,4.4660,0.4732,0.1200;
0.4769,4.4420,0.4769,0.0900;
0.4806,4.4160,0.4806,0.0940;
0.4843,4.3910,0.4843,0.0830;
0.4881,4.3670,0.4881,0.0790;
0.4920,4.3430,0.4920,0.0770;
0.4959,4.3200,0.4959,0.0730;
0.4999,4.2980,0.4999,0.0730;
0.5040,4.2770,0.5040,0.0660;
0.5081,4.2550,0.5081,0.0720;
0.5123,4.2350,0.5123,0.0600;
0.5166,4.2150,0.5166,0.0600;
0.5209,4.1960,0.5209,0.0560;
0.5254,4.1770,0.5254,0.0530;
0.5299,4.1590,0.5299,0.0430;
0.5344,4.1400,0.5344,0.0450;
0.5391,4.1230,0.5391,0.0480;
0.5438,4.1060,0.5438,0.0440;
0.5486,4.0890,0.5486,0.0440;
0.5535,4.0730,0.5535,0.0320;
0.5585,4.0570,0.5585,0.0380;
0.5636,4.0420,0.5636,0.0320;
0.5687,4.0260,0.5687,0.0340;
0.5740,4.0120,0.5740,0.0300;
0.5794,3.9970,0.5794,0.0270;
0.5848,3.9830,0.5848,0.0300;
0.5904,3.9690,0.5904,0.0300;
0.5961,3.9560,0.5961,0.0270;
0.6019,3.9430,0.6019,0.0250;
0.6078,3.9310,0.6078,0.0250;
0.6138,3.9180,0.6138,0.0240;
0.6199,3.9060,0.6199,0.0220;
0.6262,3.8930,0.6262,0.0220;
0.6326,3.8820,0.6326,0.0190;
0.6391,3.8700,0.6391,0.0180;
0.6458,3.8580,0.6458,0.0170;
0.6526,3.8470,0.6526,0.0160;
0.6595,3.8370,0.6595,0.0160;
0.6666,3.8260,0.6666,0.0150;
0.6738,3.8150,0.6738,0.0140;
0.6812,3.8050,0.6812,0.0130;
0.6888,3.7960,0.6888,0.0130;
0.6965,3.7870,0.6965,0.0130;
0.7045,3.7780,0.7045,0.0120;
0.7126,3.7680,0.7126,0.0110;
0.7208,3.7610,0.7208,0.0110;
0.7293,3.7520,0.7293,0.0100;
0.7380,3.7450,0.7380,0.0100;
0.7469,3.7360,0.7469,0.0090;
0.7560,3.7280,0.7560,0.0090;
0.7653,3.7210,0.7653,0.0080;
0.7749,3.7140,0.7749,0.0080;
0.7847,3.7050,0.7847,0.0070;
0.7948,3.6970,0.7948,0.0070;
0.8051,3.6880,0.8051,0.0060;
0.8157,3.6810,0.8157,0.0060;
0.8266,3.6730,0.8266,0.0050;
1.1200,3.5361,0.9686,0.0006;
1.1440,3.5295,0.9840,0.0005;
1.2000,3.5193,0.9990,0.0004;
1.3720,3.5007,1.0160,0.0003;
1.4000,3.4876,1.0330,0.0002;
1.5320,3.4784,1.0510,0.0001;
1.6000,3.4710,1.0690,0.0001;
1.6960,3.4644,1.0880,0.0000;
1.8000,3.4578,1.1070,0.0000;
2.0000,3.4490,1.1270,0.0000;
2.4373,3.4434,1.1480,0.0000;
2.5000,3.4424,1.1700,0.0000;
2.7144,3.4393,2.7144,0.0000;
3.0000,3.4361,3.8000,0.0000;
3.3033,3.4335,5.0000,0.0000;
3.4188,3.4327,0,0;
3.5000,3.4321,0,0;
4.0000,3.4294,0,0];
wavelength=A(:,1)*1000;
diff=lambda-wavelength;
[a,b]=min(abs(diff));
kappa=A(b,4);

%fprintf('the extinction coefficient of %f is %f %n',lambda,kappa)
a=4*pi*kappa/(lambda*1e-9);
%fprintf('the absorbsion coefficient of %f is %f %n',lambda,alpha)
end

